#Acq. time (s)=	0.07
#Accumulations=	20
#Range (nm)=	505...508
#Windows=	1
#Auto scanning=	Off
#Autofocus=	Off
#AutoExposure=	Off
#Spike filter=	Off
#Delay time (s)=	0
#Binning=	1
#Readout mode=	Signal
#DeNoise=	Off
#ICS correction=	Off
#Dark correction=	Off
#Inst. Process=	Off
#Detector temperature (°C)=	-75.19
#Instrument=	OSD
#Detector=	Synapse
#Grating=	2400
#Front entrance slit=	20
#Exit mirror=	Side
#Full time(mm:ss)=	4:00
#Project=	
#Sample=	
#Site=	
#Title=	W_Ar_DC_3Pa_1493W_439V_3_4A
#Remark=	
#Date=	10.12.2019 10:16
#Acquired=	10.12.2019 10:16:19
505.015	633.8
505.019	634.1
505.023	637.1
505.027	640.6
505.031	644.7
505.035	647.1
505.04	652.6
505.044	656.2
505.048	653.6
505.052	647.6
505.056	649.7
505.06	647.7
505.064	646.3
505.068	646.3
505.072	657
505.077	687.7
505.081	741.3
505.085	771.7
505.089	729.2
505.093	686.3
505.097	662.1
505.101	655
505.105	651.4
505.109	651.3
505.114	653.9
505.118	656.9
505.122	656.4
505.126	655.4
505.13	653.6
505.134	658
505.138	659.3
505.142	662.8
505.146	664.7
505.151	677.5
505.155	705.4
505.159	796.2
505.163	1032
505.167	1329.7
505.171	1354.7
505.175	1041.5
505.179	788.8
505.183	701.3
505.188	683.7
505.192	684.7
505.196	683.3
505.2	681.3
505.204	684.6
505.208	699.4
505.212	703.1
505.216	707.3
505.22	709.6
505.225	732
505.229	761.6
505.233	773.3
505.237	765
505.241	773.9
505.245	815
505.249	916.1
505.253	1183.4
505.257	1980.1
505.262	4585.8
505.266	12824.3
505.27	32173.3
505.274	49752.4
505.278	48338.9
505.282	28024.2
505.286	9620.4
505.29	3006.7
505.294	1347.4
505.299	933.2
505.303	811.9
505.307	773.5
505.311	748.5
505.315	731.3
505.319	722.8
505.323	713.8
505.327	710
505.331	702.4
505.336	691.8
505.34	688.4
505.344	692
505.348	692.5
505.352	704.9
505.356	740.8
505.36	830.5
505.364	876.4
505.368	804.7
505.373	756.7
505.377	782.5
505.381	879.8
505.385	1122.6
505.389	1834.6
505.393	4281.9
505.397	12391.2
505.401	31443.1
505.405	46930.4
505.409	42358.8
505.414	20903.5
505.418	6483.1
505.422	2095.4
505.426	1067.6
505.43	829.8
505.434	751.5
505.438	723.2
505.442	703.4
505.446	690.1
505.451	687.5
505.455	676.4
505.459	666.8
505.463	652.8
505.467	647.1
505.471	640.6
505.475	638.7
505.479	637.8
505.483	648.3
505.488	685.7
505.492	809.1
505.496	1021.3
505.5	1082.5
505.504	885.7
505.508	701.7
505.512	639.3
505.516	626.1
505.52	622.4
505.525	622.9
505.529	624.8
505.533	630.1
505.537	636.7
505.541	630.6
505.545	628.6
505.549	620.9
505.553	659.5
505.557	660
505.561	645
505.566	637.4
505.57	635.5
505.574	633.1
505.578	637.2
505.582	636.8
505.586	626.8
505.59	628.2
505.594	649.2
505.598	661
505.603	649.7
505.607	640.9
505.611	636.6
505.615	622.1
505.619	616.7
505.623	618.1
505.627	620.9
505.631	633.2
505.635	671.9
505.639	738.3
505.644	762.4
505.648	703
505.652	647.3
505.656	622
505.66	614.5
505.664	608.4
505.668	609.2
505.672	608.4
505.676	610.3
505.681	616
505.685	620.1
505.689	622.7
505.693	617.1
505.697	612.1
505.701	611.3
505.705	613.6
505.709	614.2
505.713	615.9
505.717	615.7
505.722	613.6
505.726	614.4
505.73	615.4
505.734	621.2
505.738	639.1
505.742	682.4
505.746	707.9
505.75	686.9
505.754	641.7
505.759	621.4
505.763	617.4
505.767	616.2
505.771	612.7
505.775	609.8
505.779	609.2
505.783	611.4
505.787	614.9
505.791	616.4
505.795	614.2
505.8	613.3
505.804	619
505.808	632.8
505.812	642.1
505.816	633.9
505.82	623.3
505.824	620.8
505.828	619
505.832	612.4
505.836	608.5
505.841	609.3
505.845	607.8
505.849	607.3
505.853	607.2
505.857	606
505.861	606.5
505.865	607.6
505.869	609.8
505.873	612.6
505.878	617.5
505.882	627.9
505.886	661.7
505.89	686.7
505.894	664.2
505.898	627
505.902	613.4
505.906	609.4
505.91	608.5
505.914	607.3
505.919	607.7
505.923	608.3
505.927	611.4
505.931	611.9
505.935	613.5
505.939	619.1
505.943	653.9
505.947	771.8
505.951	889.4
505.955	817
505.96	671
505.964	624.8
505.968	622.6
505.972	631.1
505.976	632.6
505.98	624
505.984	616.5
505.988	610
505.992	609.4
505.996	608.8
506.001	608.8
506.005	606.5
506.009	607.3
506.013	606.5
506.017	608.1
506.021	610
506.025	615.7
506.029	617.6
506.033	613.9
506.037	610.8
506.042	610
506.046	608.6
506.05	611.6
506.054	616
506.058	621.4
506.062	621.7
506.066	616
506.07	610.6
506.074	610.1
506.078	609.5
506.083	613.6
506.087	615.5
506.091	612.7
506.095	610.6
506.099	608.3
506.103	610.2
506.107	611
506.111	611.8
506.115	612.5
506.119	613.5
506.124	615.4
506.128	622.8
506.132	651.7
506.136	753.5
506.14	1177.8
506.144	2310.4
506.148	2835.4
506.152	1840.5
506.156	887
506.16	661.4
506.165	622.9
506.169	615.9
506.173	614.1
506.177	615.3
506.181	614.8
506.185	616
506.189	616.2
506.193	616.4
506.197	610.3
506.201	610
506.206	611.7
506.21	612.9
506.214	613
506.218	612.5
506.222	611.9
506.226	609.1
506.23	607.6
506.234	606
506.238	608.6
506.242	609.3
506.247	609.2
506.251	606.1
506.255	605.6
506.259	605.4
506.263	606.3
506.267	606.1
506.271	605.1
506.275	606.5
506.279	606.6
506.283	607.8
506.288	608.2
506.292	614.3
506.296	628
506.3	661.7
506.304	710
506.308	717.1
506.312	674.4
506.316	630.6
506.32	613.5
506.324	608.9
506.328	608.6
506.333	608.7
506.337	608.2
506.341	608.8
506.345	608.8
506.349	605.9
506.353	605.6
506.357	606.2
506.361	608.3
506.365	610.1
506.369	609.4
506.374	606.8
506.378	607.1
506.382	608.5
506.386	610.3
506.39	607
506.394	605.3
506.398	605.6
506.402	604.2
506.406	605
506.41	604.7
506.415	606.4
506.419	608.2
506.423	608.8
506.427	608.7
506.431	606.3
506.435	605.4
506.439	608.3
506.443	611.2
506.447	615.5
506.451	619.3
506.455	616.9
506.46	611.3
506.464	607.9
506.468	609.7
506.472	609.7
506.476	613.8
506.48	617.6
506.484	614.8
506.488	615.3
506.492	615.3
506.496	616.6
506.501	617.2
506.505	636.6
506.509	662.4
506.513	664.6
506.517	637.5
506.521	619.2
506.525	613.6
506.529	615.1
506.533	616.9
506.537	618.6
506.541	617
506.546	616.2
506.55	613.4
506.554	614.8
506.558	617.2
506.562	617.7
506.566	620.4
506.57	620.6
506.574	625.2
506.578	628.6
506.582	629.5
506.587	630.3
506.591	626.9
506.595	627.4
506.599	627.7
506.603	631.5
506.607	634.6
506.611	634.7
506.615	629.5
506.619	627.1
506.623	627
506.627	627.6
506.632	627.1
506.636	633.9
506.64	644.7
506.644	651.2
506.648	658.6
506.652	672.5
506.656	673.7
506.66	683.3
506.664	770
506.668	906.2
506.672	926.3
506.677	796.7
506.681	679.7
506.685	642.2
506.689	634.3
506.693	634.6
506.697	634.3
506.701	634.8
506.705	634
506.709	631.9
506.713	631.7
506.717	629.6
506.722	630.6
506.726	634.6
506.73	636.8
506.734	641.7
506.738	653.6
506.742	658.1
506.746	649.6
506.75	644.3
506.754	644.4
506.758	643.2
506.762	644.1
506.767	646.8
506.771	653.9
506.775	656.1
506.779	659.9
506.783	656.4
506.787	652.4
506.791	651.9
506.795	657.8
506.799	661.2
506.803	665.2
506.807	668.2
506.812	674.2
506.816	685.5
506.82	698.2
506.824	720
506.828	762
506.832	854.9
506.836	1107.2
506.84	1934.8
506.844	5057.8
506.848	16035.1
506.853	37463.1
506.857	47298
506.861	34934.1
506.865	13281.2
506.869	3860.8
506.873	1483.1
506.877	954.1
506.881	815
506.885	760.5
506.889	722.1
506.893	693.3
506.897	684.1
506.902	688.6
506.906	702
506.91	694.7
506.914	666.6
506.918	648.7
506.922	640.3
506.926	636.2
506.93	632
506.934	628.9
506.938	626.3
506.942	626.7
506.947	628.7
506.951	628.7
506.955	637.6
506.959	666.9
506.963	702.1
506.967	688.1
506.971	654.9
506.975	638.7
506.979	630.3
506.983	618.2
506.987	617.1
506.992	615.4
506.996	615.6
507	615.5
507.004	621.3
507.008	632.1
507.012	635.1
507.016	626.3
507.02	618.7
507.024	616.6
507.028	614
507.032	621.1
507.036	636.7
507.041	641.8
507.045	623.4
507.049	614.7
507.053	615.5
507.057	619.1
507.061	626.6
507.065	639.7
507.069	640.2
507.073	626
507.077	623
507.081	640.3
507.086	705.4
507.09	851.2
507.094	928.4
507.098	868
507.102	892.1
507.106	1418.1
507.11	2677.3
507.114	3327.1
507.118	2371
507.122	1182
507.126	750.6
507.131	646.9
507.135	631.1
507.139	638.8
507.143	652.7
507.147	646
507.151	628.3
507.155	621.5
507.159	618.7
507.163	614.2
507.167	612.7
507.171	610.7
507.175	608.1
507.18	609.6
507.184	612.1
507.188	617.3
507.192	625.8
507.196	622.4
507.2	614.1
507.204	608.4
507.208	608.7
507.212	604.9
507.216	607.4
507.22	605.8
507.225	610.8
507.229	615.3
507.233	622.5
507.237	626.9
507.241	630.9
507.245	669
507.249	688.7
507.253	648.2
507.257	615.2
507.261	609.7
507.265	611.7
507.269	613.8
507.274	612.3
507.278	609.9
507.282	608.3
507.286	604.5
507.29	604.7
507.294	605.8
507.298	607.5
507.302	607.3
507.306	605.1
507.31	605.4
507.314	604.7
507.318	603.6
507.323	604.6
507.327	605.8
507.331	608
507.335	609.4
507.339	610.9
507.343	608.4
507.347	606.3
507.351	607.7
507.355	605.9
507.359	606
507.363	606.5
507.367	608.3
507.372	607.6
507.376	607
507.38	604.9
507.384	604.6
507.388	602.9
507.392	603.5
507.396	605.6
507.4	604.1
507.404	606.1
507.408	609.4
507.412	616.1
507.416	620.6
507.421	625.3
507.425	621.1
507.429	614.4
507.433	607.2
507.437	607.1
507.441	609.2
507.445	611.6
507.449	623.6
507.453	636.9
507.457	636.6
507.461	624.8
507.465	615.8
507.47	610.8
507.474	607
507.478	607
507.482	607.9
507.486	609.6
507.49	607.6
507.494	605.5
507.498	604.5
507.502	604.4
507.506	603.8
507.51	604.8
507.514	604.4
507.519	604.7
507.523	605.7
507.527	605.8
507.531	603.5
507.535	604.3
507.539	603.1
507.543	605
507.547	604
507.551	605
507.555	606.6
507.559	609.1
507.563	607.7
507.568	605
507.572	605.5
507.576	611.2
507.58	614.4
507.584	615.1
507.588	612.8
507.592	616.8
507.596	619.7
507.6	615.1
507.604	614
507.608	621.4
507.612	626.1
507.616	623.2
507.621	629.3
507.625	654
507.629	666.6
507.633	670.8
507.637	722.7
507.641	788.4
507.645	765.1
507.649	677.7
507.653	632.6
507.657	630.4
507.661	646.9
507.665	647.7
507.67	625.5
507.674	612.4
507.678	611.7
507.682	614.5
507.686	612.4
507.69	609.3
507.694	608.7
507.698	605.1
507.702	604
507.706	603.7
507.71	603.8
507.714	605.4
507.719	607.6
507.723	605.7
507.727	607.1
507.731	613.9
507.735	622.8
507.739	638
507.743	643.4
507.747	628.4
507.751	608.2
507.755	606
507.759	607.3
507.763	610.2
507.767	610.3
507.772	610.5
507.776	616.4
507.78	627.3
507.784	621.2
507.788	612.7
507.792	608.3
507.796	611.5
507.8	620.1
507.804	620.2
507.808	609.8
507.812	606.3
507.816	606
507.82	605.2
507.825	605.4
507.829	605.3
507.833	605.7
507.837	608.7
507.841	611.4
507.845	609.7
507.849	612.8
507.853	620.4
507.857	624.9
507.861	622.1
507.865	617.5
507.869	612.5
507.873	614.1
507.878	615.6
507.882	611
507.886	607.7
507.89	607
507.894	606.1
507.898	607.8
507.902	604.7
507.906	605.5
507.91	606.8
507.914	608.3
507.918	611.2
507.922	618
507.926	639.9
507.931	678.8
507.935	688.7
507.939	656
507.943	634.9
507.947	655.1
507.951	691.2
507.955	691.4
507.959	655.5
507.963	622.5
507.967	613.8
507.971	614.7
507.975	614.8
507.979	611.6
507.984	608.2
507.988	610.4
507.992	612.9
507.996	618.4
508	630.3
